File: htt_analysis/data/pyrdf_htt_multinode_xrd_ssd_48partitions.csv
3050.67
3338.7
3410.37
4786.99
3329.12
3041.09
3185.44
2899.25
2536.14
4903.38
2456.65